Symbol: Sm
Atomic Number: 62
Atomic Mass: 150.360000
Start Spectral Index: 2
1 162
2 635
End Spectral Index:
Order of Magnitude: 0.000001
Start Spectral Lines:
2 0.269170
2 0.276867
2 0.278005
2 0.279020
2 0.281169
2 0.281803
2 0.282179
2 0.284833
2 0.286693
2 0.286924
2 0.290884
2 0.291113
2 0.293834
2 0.294435
2 0.295405
2 0.296361
2 0.296989
2 0.298430
2 0.299244
2 0.303572
2 0.304001
2 0.304782
2 0.307218
2 0.308735
2 0.309778
2 0.310320
2 0.310742
2 0.311110
2 0.311862
2 0.313721
2 0.314088
2 0.314810
2 0.315301
2 0.315343
2 0.316322
2 0.317080
2 0.317904
2 0.318484
2 0.318793
2 0.318814
2 0.318871
2 0.319393
2 0.319710
2 0.320273
2 0.320583
2 0.320811
2 0.320910
2 0.321266
2 0.321505
2 0.321619
2 0.321778
2 0.321954
2 0.322036
2 0.322777
2 0.322943
2 0.322971
2 0.323149
2 0.323246
2 0.323288
2 0.323461
2 0.323757
2 0.323882
2 0.324059
2 0.324210
2 0.324253
2 0.324298
2 0.324563
2 0.325069
2 0.325131
2 0.325434
2 0.325488
2 0.325532
2 0.325657
2 0.326322
2 0.326588
2 0.327143
2 0.327162
2 0.327342
2 0.327354
2 0.327375
2 0.327442
2 0.327769
2 0.328179
2 0.328661
2 0.328718
2 0.329123
2 0.329134
2 0.329160
2 0.329432
2 0.329639
2 0.329676
2 0.329905
2 0.330193
2 0.330263
2 0.330547
2 0.330613
2 0.330734
2 0.330756
2 0.330797
2 0.331047
2 0.331161
2 0.331337
2 0.331753
2 0.332112
2 0.332155
2 0.332214
2 0.332473
2 0.332622
2 0.332644
2 0.332884
2 0.333460
2 0.333708
2 0.334154
2 0.334445
2 0.334460
2 0.334531
2 0.334826
2 0.334964
2 0.335184
2 0.335514
2 0.335526
2 0.335568
2 0.336683
2 0.336824
2 0.336954
2 0.337043
2 0.337156
2 0.337218
2 0.337745
2 0.338337
2 0.338563
2 0.338863
2 0.339029
2 0.339208
2 0.339716
2 0.339874
2 0.340082
2 0.340344
2 0.340407
2 0.340966
2 0.341913
2 0.341949
2 0.342075
2 0.342576
2 0.342718
2 0.343466
2 0.343809
2 0.343905
2 0.344149
2 0.345455
2 0.346019
2 0.346041
2 0.346212
2 0.346506
2 0.346886
2 0.347495
2 0.348053
2 0.348126
2 0.348156
2 0.348841
2 0.349461
2 0.350084
2 0.351223
2 0.353161
2 0.353358
2 0.353666
2 0.355517
2 0.356012
2 0.356786
2 0.356929
2 0.357881
2 0.358196
2 0.358441
2 0.359363
2 0.360272
2 0.360531
2 0.361052
2 0.362161
2 0.362226
2 0.362435
2 0.362804
2 0.363217
2 0.363533
2 0.363597
2 0.363981
2 0.364633
2 0.364643
2 0.365057
2 0.365123
2 0.365726
2 0.366240
2 0.366373
2 0.366897
2 0.367171
2 0.367189
2 0.367884
2 0.368278
2 0.368947
2 0.369327
2 0.369504
2 0.370780
2 0.370803
2 0.370947
2 0.370971
2 0.371260
2 0.371382
2 0.371994
2 0.372291
2 0.372596
2 0.372953
2 0.373232
2 0.373704
2 0.373820
2 0.373854
2 0.374018
2 0.374026
2 0.374235
2 0.374493
1 0.374652
2 0.374666
2 0.374869
2 0.375635
1 0.375748
2 0.375860
2 0.375952
2 0.376004
2 0.376111
2 0.376176
2 0.376366
2 0.376544
2 0.376843
2 0.376883
1 0.377440
2 0.377449
2 0.377921
2 0.378183
2 0.378200
2 0.378828
2 0.378920
2 0.379505
2 0.379836
2 0.379881
2 0.380062
2 0.380197
2 0.380671
2 0.380954
2 0.381083
2 0.381096
2 0.381151
2 0.381315
2 0.381471
2 0.381571
2 0.382527
2 0.382729
2 0.383138
2 0.383259
2 0.383492
1 0.383557
2 0.383569
2 0.383681
2 0.384003
2 0.384154
2 0.384459
2 0.384860
2 0.384987
2 0.385297
1 0.385439
2 0.385530
1 0.385565
2 0.385699
2 0.385900
1 0.385983
2 0.386315
2 0.386333
2 0.386634
2 0.387288
2 0.387629
2 0.387664
2 0.388187
2 0.388248
2 0.388289
2 0.388360
2 0.388639
2 0.389026
2 0.389032
2 0.389118
2 0.389231
2 0.389515
2 0.389808
2 0.390453
2 0.391855
2 0.392351
2 0.392939
2 0.393687
2 0.394299
2 0.394436
2 0.394763
2 0.394923
1 0.395301
2 0.396065
2 0.396412
2 0.396716
2 0.396880
2 0.397165
2 0.397252
1 0.397578
2 0.397739
2 0.397755
2 0.398033
2 0.398427
2 0.398781
2 0.398856
2 0.399113
1 0.399115
2 0.399444
2 0.400459
2 0.400861
2 0.402112
2 0.402437
2 0.403625
2 0.404282
2 0.404386
2 0.404404
2 0.404525
2 0.404619
2 0.404730
2 0.404830
2 0.404976
2 0.405095
2 0.406002
2 0.406469
2 0.406547
2 0.406573
2 0.406789
2 0.406948
2 0.407699
2 0.407780
2 0.408171
2 0.408375
2 0.408473
2 0.408555
2 0.409343
2 0.409521
2 0.410529
2 0.410844
2 0.410855
2 0.411056
2 0.411135
2 0.411506
2 0.411971
2 0.412252
2 0.412367
2 0.412512
2 0.413039
2 0.413631
2 0.414888
2 0.415100
2 0.415338
2 0.415450
2 0.415639
2 0.417066
2 0.417275
2 0.417920
2 0.418228
1 0.418451
2 0.418494
2 0.418931
2 0.419311
2 0.420063
2 0.420410
2 0.420423
2 0.420731
2 0.420781
2 0.421154
2 0.422185
2 0.422652
2 0.423089
2 0.423576
2 0.423793
2 0.423885
2 0.424590
2 0.425075
2 0.425298
2 0.425759
2 0.425978
2 0.426388
2 0.426628
2 0.428088
2 0.428095
2 0.428114
2 0.428199
1 0.428341
1 0.428404
1 0.428471
2 0.428785
2 0.429339
1 0.429795
2 0.430615
2 0.431022
1 0.431406
2 0.432015
1 0.432074
2 0.432450
1 0.432568
2 0.433024
1 0.433124
2 0.433537
1 0.433736
2 0.434708
2 0.434902
2 0.435168
2 0.435332
2 0.436195
2 0.436230
2 0.436327
1 0.436414
2 0.436468
2 0.436926
2 0.437115
2 0.437469
2 0.437621
2 0.437947
1 0.438165
2 0.438552
2 0.439209
1 0.439458
1 0.439858
1 0.440241
2 0.440430
1 0.440437
2 0.440460
2 0.441057
1 0.441282
2 0.441882
1 0.442057
2 0.442177
2 0.442238
2 0.442558
1 0.443090
2 0.443512
2 0.443557
1 0.444306
1 0.444353
2 0.444551
1 0.444640
2 0.445398
1 0.445420
2 0.445588
2 0.445977
1 0.446054
2 0.446859
1 0.447214
2 0.447369
2 0.447428
2 0.447992
1 0.450037
2 0.450074
1 0.450464
2 0.450631
1 0.451260
2 0.451310
2 0.451636
2 0.452090
2 0.452431
1 0.452445
2 0.452518
1 0.453507
2 0.453778
2 0.453922
2 0.453980
2 0.454146
2 0.454333
2 0.454522
2 0.454610
2 0.455394
2 0.455573
2 0.456171
2 0.456749
2 0.457897
1 0.458286
1 0.458301
2 0.458611
2 0.459311
2 0.459483
2 0.459658
1 0.459803
2 0.460547
2 0.460780
2 0.461673
2 0.461698
2 0.463151
2 0.464354
1 0.464670
2 0.464798
2 0.464946
1 0.465079
2 0.465643
1 0.466487
2 0.467071
2 0.467096
1 0.467206
1 0.467214
2 0.467591
2 0.467822
1 0.468286
2 0.468849
1 0.469004
2 0.469494
2 0.470066
2 0.470572
2 0.471438
2 0.471658
1 0.471742
1 0.471839
2 0.471904
2 0.471965
2 0.472116
2 0.472734
1 0.472974
2 0.474701
1 0.475205
1 0.476160
1 0.477153
2 0.477548
2 0.477919
1 0.478444
1 0.478720
1 0.479130
2 0.479292
2 0.481716
2 0.483092
1 0.484305
2 0.484556
2 0.484911
1 0.484967
2 0.485572
1 0.488513
1 0.488533
1 0.490634
1 0.491177
2 0.491462
1 0.492036
1 0.492541
2 0.493948
2 0.495001
2 0.495375
2 0.496332
1 0.497737
2 0.502984
1 0.504569
2 0.505417
2 0.507087
1 0.507261
2 0.510164
1 0.510181
2 0.510451
2 0.510590
2 0.511813
1 0.511859
1 0.512357
2 0.515647
1 0.517418
1 0.517686
1 0.520204
1 0.525338
1 0.527287
1 0.528438
1 0.532208
1 0.534278
1 0.536985
1 0.540673
1 0.545452
1 0.546824
1 0.549525
1 0.551363
1 0.551762
1 0.555049
1 0.555194
1 0.557497
1 0.558975
2 0.560241
1 0.562335
1 0.562757
1 0.564567
1 0.566143
1 0.569831
1 0.570778
1 0.571251
1 0.573454
2 0.574494
2 0.576112
1 0.577537
1 0.577993
1 0.578084
2 0.578353
2 0.578858
1 0.578999
1 0.580213
1 0.580445
1 0.581650
2 0.583264
2 0.583799
1 0.586240
1 0.586942
1 0.587024
1 0.587269
1 0.587584
2 0.589902
1 0.590059
2 0.594055
2 0.596736
2 0.597047
1 0.598595
1 0.604667
1 0.604706
1 0.607174
1 0.608580
1 0.609309
2 0.611235
1 0.616126
2 0.624849
1 0.625827
2 0.625839
2 0.626901
2 0.629356
2 0.630880
2 0.632922
2 0.642842
2 0.647413
2 0.648631
2 0.650047
2 0.654457
2 0.657112
2 0.657249
2 0.658703
2 0.659154
2 0.660365
2 0.660638
2 0.663411
1 0.667335
2 0.668105
2 0.669540
1 0.672493
2 0.673370
2 0.673592
2 0.673667
2 0.674333
2 0.678048
2 0.679187
2 0.679608
2 0.684660
2 0.685792
1 0.686282
2 0.686471
2 0.695243
2 0.695721
2 0.702238
2 0.703867
2 0.704116
2 0.704418
2 0.705109
2 0.705346
2 0.705692
1 0.707662
2 0.708432
2 0.708747
1 0.709025
1 0.709312
1 0.709746
1 0.709829
1 0.710650
1 0.710819
1 0.711792
2 0.711947
2 0.712177
2 0.712436
2 0.712707
1 0.713377
1 0.713798
2 0.714136
2 0.714595
2 0.715157
1 0.717465
2 0.719155
1 0.721294
1 0.721581
2 0.722008
1 0.722206
2 0.723901
2 0.724290
2 0.725911
2 0.726352
1 0.728126
2 0.728348
1 0.728422
2 0.728534
2 0.729093
1 0.729224
2 0.730273
2 0.732910
1 0.733467
1 0.734006
1 0.734932
2 0.737872
2 0.739602
1 0.744661
1 0.744746
2 0.745508
1 0.747282
2 0.748405
2 0.750446
2 0.751907
2 0.754350
1 0.754682
1 0.754865
2 0.756211
2 0.756502
2 0.757303
2 0.757437
2 0.758018
2 0.758794
2 0.759040
1 0.760010
2 0.760957
1 0.760983
2 0.761604
2 0.763387
2 0.764004
2 0.764719
1 0.764792
2 0.765013
2 0.765789
2 0.766931
2 0.767460
2 0.768090
1 0.769790
2 0.771416
2 0.773069
2 0.773839
2 0.775143
2 0.775733
1 0.779664
1 0.780369
2 0.781490
2 0.782230
2 0.783355
2 0.783724
2 0.783943
2 0.784698
1 0.786169
2 0.786581
2 0.788218
1 0.789813
2 0.791714
2 0.793032
1 0.793410
2 0.793927
2 0.795031
2 0.800381
2 0.801712
2 0.802733
2 0.802853
2 0.803424
2 0.805091
1 0.806738
2 0.807068
2 0.811939
2 0.812735
2 0.816406
2 0.819775
2 0.820856
2 0.822102
1 0.823259
2 0.824325
2 0.829154
2 0.830316
2 0.830807
1 0.831774
2 0.835097
1 0.838601
2 0.839008
2 0.843496
2 0.847587
2 0.848832
2 0.851324
2 0.854557
2 0.861940
2 0.863519
2 0.868019
2 0.870871
2 0.871082
2 0.872028
2 0.876069
2 0.878300
2 0.879124
2 0.886219
2 0.891611
End Spectral Lines:
