Symbol: Cf
Atomic Number: 98
Atomic Mass: 251.000000
Start Spectral Index: 2
1 26
2 10
End Spectral Index:
Order of Magnitude: 0.000001
Start Spectral Lines:
1 0.339319
1 0.353250
1 0.354199
1 0.359980
1 0.360635
2 0.361314
1 0.361852
2 0.362779
1 0.366374
2 0.372317
1 0.374041
1 0.378669
2 0.379012
2 0.389433
2 0.399470
1 0.410028
1 0.424357
1 0.433025
1 0.433644
1 0.517540
1 0.518052
1 0.522069
1 0.541038
1 0.572764
1 0.662466
1 0.663309
1 0.667974
1 0.689649
2 0.692901
1 0.707647
1 0.730991
1 0.814353
1 0.824404
2 0.833614
2 0.842580
2 0.857118
End Spectral Lines:
