Symbol: P
Atomic Number: 15
Atomic Mass: 30.973800
Start Spectral Index: 13
1 258
2 100
3 70
4 129
5 48
6 5
7 3
8 20
9 47
10 26
11 18
12 16
13 14
End Spectral Index:
Order of Magnitude: 0.000001
Start Spectral Lines:
13 0.003510
13 0.003514
12 0.003734
13 0.003756
13 0.003771
13 0.003772
13 0.003875
13 0.003892
11 0.004260
11 0.004276
11 0.004278
12 0.004405
11 0.004600
11 0.004620
6 0.007495
6 0.007564
6 0.007653
6 0.009065
6 0.009147
9 0.019463
8 0.019676
9 0.019703
9 0.019726
10 0.020383
10 0.020538
10 0.020734
10 0.020766
9 0.021116
9 0.021163
9 0.021399
9 0.021447
7 0.021991
8 0.022236
7 0.022349
9 0.022708
9 0.022762
9 0.022824
11 0.023140
9 0.023257
9 0.023258
11 0.023426
10 0.023526
11 0.023671
10 0.023695
11 0.023971
8 0.024456
8 0.024632
8 0.024765
11 0.024794
8 0.024805
8 0.024932
9 0.025036
9 0.025037
9 0.025073
9 0.025074
8 0.025123
11 0.025405
5 0.025559
5 0.025567
11 0.026192
11 0.026434
10 0.026563
11 0.026785
10 0.026947
12 0.027829
9 0.027840
9 0.027919
9 0.027921
9 0.028015
4 0.028230
9 0.028325
9 0.028537
9 0.028669
9 0.028951
9 0.030302
4 0.030500
9 0.030888
10 0.030920
5 0.031058
9 0.031069
5 0.031134
10 0.031277
10 0.031298
11 0.031565
9 0.031686
10 0.031810
10 0.031828
10 0.031831
11 0.032551
11 0.032562
12 0.032723
5 0.032847
5 0.032878
12 0.033509
5 0.034723
5 0.034820
4 0.035929
4 0.035990
4 0.036151
4 0.036163
4 0.037130
4 0.037150
4 0.037161
4 0.037200
4 0.037215
4 0.037226
5 0.037856
4 0.038832
5 0.038950
5 0.039070
5 0.041002
5 0.041003
5 0.041003
4 0.041460
4 0.041500
4 0.041580
4 0.042947
4 0.044380
4 0.044425
4 0.044425
4 0.044516
4 0.044517
4 0.044518
13 0.045573
3 0.047115
5 0.047558
5 0.047560
5 0.047560
13 0.048030
3 0.048428
3 0.049818
4 0.052593
12 0.053279
5 0.053463
5 0.053499
5 0.054257
5 0.054492
12 0.054835
4 0.056804
3 0.056985
12 0.057187
3 0.058183
12 0.058257
12 0.060795
4 0.062901
4 0.062991
4 0.063178
4 0.064848
4 0.067140
5 0.067388
5 0.067390
5 0.067390
4 0.075651
4 0.077635
2 0.081024
4 0.082318
4 0.082473
4 0.082473
4 0.082793
4 0.082793
4 0.082793
3 0.084465
3 0.084504
3 0.084566
4 0.084596
4 0.084702
3 0.084767
4 0.084771
3 0.084802
3 0.084846
3 0.084864
4 0.084980
4 0.085039
4 0.085109
3 0.085269
9 0.085361
9 0.085361
3 0.085562
3 0.085941
3 0.085965
4 0.085972
3 0.085973
4 0.086048
9 0.086126
9 0.086126
4 0.086153
10 0.086177
4 0.086330
4 0.086502
2 0.086544
5 0.086545
4 0.086681
5 0.087139
5 0.087145
4 0.087747
4 0.088895
10 0.090212
8 0.090264
3 0.091397
3 0.091712
4 0.091850
3 0.091867
3 0.092185
4 0.095066
8 0.095215
5 0.099754
5 0.099762
3 0.099800
5 0.100038
3 0.100360
4 0.100623
4 0.102556
4 0.102810
4 0.103052
4 0.103052
4 0.103311
4 0.103552
4 0.104965
4 0.106461
4 0.106461
4 0.106554
4 0.106554
4 0.106554
4 0.106665
4 0.106665
4 0.108694
4 0.108862
4 0.108862
4 0.109144
4 0.109144
4 0.109144
5 0.111798
4 0.111855
5 0.112801
4 0.113728
12 0.119500
4 0.120642
2 0.124982
2 0.130187
2 0.130448
2 0.130468
2 0.130549
9 0.130751
9 0.130751
2 0.130987
2 0.131070
9 0.131759
9 0.131759
3 0.133481
4 0.133571
3 0.134433
3 0.134485
4 0.136670
1 0.137203
4 0.137267
1 0.137350
1 0.137473
1 0.137708
4 0.137728
1 0.137794
1 0.137943
5 0.137961
3 0.138046
3 0.138109
1 0.138147
1 0.138164
5 0.138505
5 0.144783
2 0.145289
12 0.147300
4 0.148451
4 0.148779
4 0.148910
3 0.150223
3 0.150466
2 0.153252
1 0.153475
1 0.153477
2 0.153591
2 0.153640
2 0.154230
2 0.154313
2 0.154363
4 0.158904
5 0.161050
3 0.161863
3 0.161891
13 0.164580
10 0.165920
1 0.167107
1 0.167151
1 0.167168
1 0.167204
1 0.167247
1 0.167459
10 0.167530
1 0.167970
1 0.168598
1 0.169403
1 0.169449
1 0.170638
1 0.170755
8 0.170853
1 0.171897
1 0.172781
13 0.174130
1 0.177495
1 0.178283
10 0.178600
12 0.178600
10 0.178600
1 0.178765
1 0.183480
1 0.184716
1 0.184982
1 0.185119
1 0.185207
1 0.185888
1 0.185890
1 0.185940
1 0.185944
4 0.186276
4 0.186289
4 0.186358
1 0.186435
4 0.188852
1 0.190548
1 0.190640
1 0.190766
4 0.191018
8 0.191370
8 0.191370
10 0.197500
10 0.197500
4 0.198568
4 0.198585
4 0.198611
4 0.198702
1 0.202414
1 0.202517
1 0.203309
1 0.203413
12 0.207100
4 0.208937
1 0.213614
1 0.213686
1 0.214982
8 0.215070
8 0.215070
1 0.215362
1 0.215475
1 0.215479
5 0.218097
5 0.218710
1 0.222328
1 0.222405
1 0.223566
1 0.223643
1 0.224324
8 0.225050
9 0.242400
9 0.242400
5 0.242514
5 0.244167
5 0.244198
9 0.245890
9 0.245890
4 0.247857
4 0.247882
4 0.247901
2 0.248494
9 0.248680
9 0.248680
9 0.252350
1 0.253474
1 0.253637
1 0.255403
1 0.255568
4 0.260628
2 0.260684
3 0.261193
2 0.262696
3 0.263350
2 0.263755
4 0.264508
1 0.266017
1 0.267609
1 0.267791
3 0.268093
4 0.268295
1 0.268696
1 0.268879
4 0.269950
4 0.272557
4 0.272958
4 0.272993
4 0.273409
4 0.274012
4 0.274068
4 0.274103
3 0.289609
5 0.296186
4 0.296211
5 0.297942
5 0.317601
3 0.318711
5 0.320497
3 0.322024
3 0.323447
3 0.323454
2 0.330987
4 0.334870
4 0.336544
4 0.337209
4 0.341452
2 0.342032
2 0.342598
3 0.355756
3 0.357855
4 0.373446
3 0.374530
3 0.380311
3 0.389616
3 0.390592
3 0.391542
3 0.392381
3 0.393450
3 0.395265
3 0.395876
3 0.397943
3 0.399834
3 0.405859
3 0.406046
3 0.408124
5 0.408433
13 0.408800
5 0.409611
2 0.417966
3 0.422339
3 0.424792
4 0.425085
2 0.428981
2 0.438660
2 0.440334
2 0.441858
2 0.442195
2 0.442533
3 0.442941
2 0.445371
2 0.446425
3 0.446492
2 0.446739
2 0.446923
2 0.447652
3 0.448103
2 0.450050
13 0.452100
2 0.453209
4 0.454156
4 0.454239
4 0.454933
4 0.454972
2 0.455611
2 0.455936
2 0.456657
2 0.458299
2 0.458346
2 0.458932
2 0.459114
2 0.460336
2 0.462800
2 0.465961
2 0.467055
2 0.468034
2 0.469950
13 0.473200
2 0.473787
2 0.482504
2 0.486578
2 0.492858
2 0.493701
2 0.494489
2 0.495576
2 0.497109
1 0.497954
1 0.501732
2 0.504221
1 0.504681
1 0.506062
1 0.506333
1 0.508080
1 0.509964
1 0.510239
1 0.511105
2 0.515366
1 0.515628
5 0.515816
1 0.516370
1 0.516373
1 0.516806
1 0.519187
2 0.519285
3 0.520527
3 0.520546
1 0.522335
4 0.523696
2 0.525496
1 0.525988
1 0.526353
1 0.529501
2 0.529758
2 0.531754
1 0.533390
1 0.533390
1 0.534111
1 0.534111
2 0.534623
1 0.534734
1 0.536612
2 0.537969
1 0.537984
2 0.538839
2 0.541122
2 0.542740
1 0.542960
2 0.545224
1 0.545982
2 0.546272
1 0.547919
1 0.547938
1 0.547979
2 0.548506
2 0.550124
2 0.550871
1 0.551631
1 0.551853
2 0.554268
1 0.555006
2 0.558480
2 0.558987
2 0.572929
2 0.576604
4 0.599143
2 0.602585
2 0.603571
2 0.604477
2 0.605718
2 0.605954
3 0.608509
2 0.608952
1 0.609938
4 0.614430
2 0.616730
1 0.620074
1 0.621222
2 0.623402
2 0.636903
1 0.637744
1 0.639035
3 0.641098
2 0.643710
2 0.643809
2 0.646178
3 0.648623
3 0.648817
2 0.650526
2 0.650977
1 0.667558
2 0.671513
4 0.671579
4 0.671776
1 0.671926
1 0.697110
1 0.698732
3 0.699462
1 0.700350
1 0.700851
1 0.705385
1 0.707546
1 0.710416
1 0.710467
1 0.715650
1 0.716033
1 0.716745
1 0.717708
1 0.717760
1 0.717864
1 0.719981
1 0.723747
1 0.727048
1 0.728497
1 0.734557
4 0.744571
1 0.746185
1 0.747661
1 0.748603
1 0.750781
1 0.756571
1 0.759057
2 0.773718
1 0.783625
2 0.784778
1 0.792003
1 0.795609
1 0.800485
1 0.804901
1 0.804966
1 0.806716
1 0.809230
3 0.811576
1 0.811729
1 0.828033
1 0.837016
1 0.853382
1 0.861620
1 0.863996
1 0.874393
1 0.878995
1 0.878995
1 0.880203
1 0.880203
1 0.887461
1 0.915585
1 0.917833
1 0.919637
1 0.928143
1 0.930750
1 0.932606
1 0.932969
1 0.937466
1 0.943766
1 0.944445
1 0.945542
1 0.948444
1 0.949472
1 0.949616
1 0.952439
1 0.952835
1 0.954780
1 0.955943
1 0.956606
1 0.959613
1 0.961168
1 0.962844
1 0.963106
1 0.964158
1 0.967806
1 0.967889
1 0.970919
1 0.973742
1 0.973935
1 0.975343
1 0.976345
1 0.977953
1 0.978179
1 0.979288
1 0.979953
1 0.983750
1 0.990639
1 0.997941
1 1.008703
1 1.020751
11 1.031100
1 1.043552
1 1.045874
1 1.051446
1 1.053241
1 1.058336
1 1.058447
1 1.059980
1 1.068433
1 1.077246
1 1.081610
1 1.093571
1 1.097037
1 1.097638
10 1.105600
1 1.116311
1 1.118629
1 1.118981
8 1.278400
1 1.344210
1 1.348888
1 1.353731
1 1.353731
1 1.356598
1 1.356598
1 1.358383
1 1.358383
1 1.361270
7 1.375000
12 1.395500
1 1.424553
1 1.427665
1 1.431174
1 1.443444
1 1.447458
1 1.465042
1 1.571581
1 1.596689
1 1.625921
1 1.629742
1 1.648742
1 1.659460
1 1.661759
1 1.674325
1 1.680798
1 1.711715
1 1.722798
1 1.729163
8 1.736100
8 1.736100
1 1.736374
1 1.742843
1 1.767050
1 1.801255
1 1.852396
10 1.868100
10 1.868100
1 1.888632
1 2.084731
1 2.304512
1 2.385148
1 2.614157
10 2.708600
1 2.796715
1 2.805707
1 2.816220
1 2.829188
1 2.829641
1 2.910510
12 3.113300
1 3.149180
1 3.227970
1 3.556163
1 3.559197
1 3.581229
1 3.642736
8 4.849700
9 9.615000
9 9.615000
9 17.094000
9 17.094000
3 17.884600
2 21.316500
4 21.336100
2 32.870899
2 32.870899
4 43.773300
2 60.641998
1 395.250000
1 395.250000
1 640.599976
1 640.599976
End Spectral Lines:
